* Measurement data measured by REW V5.20
* Source: Headset (USB-C to 3.5mm Headphone Jack Adapter), MICROPHONE (Master Volume), R, volume: 0.260. Timing signal peak level -31.2 dBFS, measurement signal peak level -31.1 dBFS
* Format: 256k Log Swept Sine, 1 sweep at -6.0 dBFS using an acoustic timing reference
* Dated: Dec 28, 2020 8:58:46 PM
* REW Settings:
*  C-weighting compensation: Off
*  Target level: 75.0 dB
* Note: 
* Measurement: Dec 28
* Smoothing: 1/48 octave
* Frequency Step: 1/24 octave
* Start Frequency: 20.600 Hz
*
* Freq(Hz)	SPL(dB)	Phase(degrees)
20.600000	78.543442	-127.2816
21.200001	78.554359	-127.7075
21.799999	78.687798	-128.3475
22.400000	78.871254	-129.5342
23.000000	78.974304	-130.6953
23.600000	79.006248	-131.1522
24.299999	79.076096	-131.4753
25.000000	79.136124	-132.7716
25.799999	79.139496	-134.2496
26.500000	79.256325	-134.3878
27.200001	79.438484	-134.0605
28.000000	79.499519	-133.5569
29.000000	79.374519	-134.1375
30.000000	79.069435	-136.4925
30.700001	79.003746	-137.3688
31.500000	79.128769	-138.3372
32.500000	79.082550	-139.4417
33.500000	79.070206	-139.1630
34.500000	79.174835	-139.4118
35.500000	79.124298	-139.0793
36.500000	78.959244	-138.7692
37.500000	78.929489	-139.0503
38.700001	79.099831	-140.0784
40.000000	79.374710	-138.7088
41.200001	79.451813	-139.4955
42.500000	79.576462	-139.1866
43.700001	79.874763	-140.3571
45.000000	80.123238	-140.5186
46.200001	80.317215	-142.1682
47.500000	80.391342	-143.4212
48.700001	80.351639	-144.7951
50.000000	80.385056	-145.5045
51.500000	80.396454	-146.8765
53.000000	80.482468	-147.1508
54.500000	80.503746	-148.2473
56.000000	80.474060	-148.4698
58.000000	80.505814	-149.5240
60.000000	80.651276	-150.2901
61.500000	80.606102	-150.8797
63.000000	80.621956	-151.2656
65.000000	80.574600	-152.1031
67.000000	80.554214	-152.4982
69.000000	80.585320	-152.9695
71.000000	80.612473	-153.2436
73.000000	80.626167	-153.3338
75.000000	80.611893	-153.6583
77.500000	80.598289	-154.2573
80.000000	80.608490	-154.5435
82.500000	80.609871	-154.9125
85.000000	80.575150	-154.9600
87.500000	80.913895	-155.9619
90.000000	80.509872	-156.9573
92.500000	80.642960	-155.6728
95.000000	80.615906	-155.8707
97.500000	80.619560	-155.9493
100.000000	80.615967	-156.0891
103.000000	80.660179	-156.1397
106.000000	80.674751	-156.0592
109.000000	80.699524	-156.2583
112.000000	80.738052	-156.3652
115.000000	80.760490	-156.4714
118.000000	80.772774	-156.6004
122.000000	80.825127	-156.6273
125.000000	80.849899	-156.6465
128.000000	80.868080	-156.6658
132.000000	80.895447	-156.5853
136.000000	80.950699	-156.6560
140.000000	81.011955	-156.7376
145.000000	81.050804	-156.7884
150.000000	81.081429	-156.6731
155.000000	81.132324	-156.6664
160.000000	81.208244	-156.4713
165.000000	81.266579	-156.7921
170.000000	81.343048	-156.8724
175.000000	81.386482	-156.9792
180.000000	81.424973	-157.1531
185.000000	81.503510	-157.2605
190.000000	81.564018	-157.2906
195.000000	81.655968	-157.6192
200.000000	81.731125	-158.1496
206.000000	81.764793	-158.7202
212.000000	81.817894	-159.3788
218.000000	81.849930	-160.1320
224.000000	81.846970	-161.0646
230.000000	81.789642	-161.9740
236.000000	81.759644	-162.8366
243.000000	81.614227	-164.0424
250.000000	81.422691	-164.8958
258.000000	81.166718	-165.4996
265.000000	80.907364	-165.5282
272.000000	80.663467	-165.1700
280.000000	80.420403	-164.5495
290.000000	80.144035	-163.3788
300.000000	79.879822	-161.9418
307.000000	79.674789	-160.7273
315.000000	79.521118	-158.8706
325.000000	79.441559	-156.3235
335.000000	79.487183	-153.9500
345.000000	79.609406	-152.6794
355.000000	79.678383	-151.5736
365.000000	79.708908	-150.7223
375.000000	79.728455	-150.0962
387.000000	79.703842	-149.3703
400.000000	79.598221	-148.1741
412.000000	79.563629	-146.5954
425.000000	79.583923	-145.1389
437.000000	79.657036	-144.0442
450.000000	79.720825	-143.5703
462.000000	79.677734	-143.1371
475.000000	79.612808	-142.7795
487.000000	79.466263	-142.4482
500.000000	79.287933	-141.6873
515.000000	79.010338	-140.3489
530.000000	78.727661	-138.1378
545.000000	78.501404	-135.2550
560.000000	78.412521	-131.6998
580.000000	78.482971	-128.0524
600.000000	78.584305	-124.6986
615.000000	78.656006	-122.9177
630.000000	78.669693	-121.1962
650.000000	78.502983	-118.1661
670.000000	78.594856	-113.6168
690.000000	78.933304	-110.0737
710.000000	79.257477	-107.5826
730.000000	79.588455	-105.6855
750.000000	79.914558	-104.7295
775.000000	80.187538	-104.3793
800.000000	80.279411	-104.4644
825.000000	80.012993	-104.5133
850.000000	79.744797	-100.8588
875.000000	79.889038	-97.5232
900.000000	80.038826	-95.6547
925.000000	80.179192	-93.7224
950.000000	80.302261	-92.9359
975.000000	80.201698	-92.0664
1000.000000	80.128052	-90.2807
1030.000000	79.993675	-88.6157
1060.000000	79.958023	-85.6177
1090.000000	79.906059	-84.5633
1120.000000	79.553696	-81.5670
1150.000000	79.497223	-78.3954
1180.000000	79.409286	-74.8527
1220.000000	79.449829	-70.8405
1250.000000	79.463715	-69.1562
1280.000000	79.116371	-67.2351
1320.000000	78.987305	-59.9442
1360.000000	79.142097	-56.5760
1400.000000	78.954460	-53.2939
1450.000000	78.849754	-46.7076
1500.000000	78.852280	-41.1617
1550.000000	78.721497	-35.0829
1600.000000	79.000839	-27.1556
1650.000000	79.143036	-21.5507
1700.000000	79.632179	-17.2836
1750.000000	79.848915	-13.1370
1800.000000	80.197266	-9.1289
1850.000000	80.325096	-3.6102
1900.000000	80.752563	0.3755
1950.000000	81.267960	3.9341
2000.000000	81.614655	5.9618
2060.000000	82.531898	11.0663
2120.000000	83.202698	12.1631
2180.000000	83.660988	10.6209
2240.000000	83.900650	11.6113
2300.000000	84.013519	11.7554
2360.000000	84.066559	11.8366
2430.000000	83.667961	13.7889
2500.000000	83.611916	15.9270
2580.000000	83.255417	19.9283
2650.000000	82.885704	22.4801
2720.000000	82.348557	27.8975
2800.000000	81.759438	35.5047
2900.000000	81.631088	47.7289
3000.000000	81.843719	58.9116
3070.000000	81.872955	64.9685
3150.000000	82.017220	73.3499
3250.000000	82.061935	84.5592
3350.000000	82.412971	94.4251
3450.000000	82.882462	103.3734
3550.000000	83.121643	112.1162
3650.000000	83.209435	120.6725
3750.000000	83.467880	128.9365
3870.000000	83.830399	138.4720
4000.000000	83.994781	147.3447
4120.000000	83.934540	155.9726
4250.000000	83.687103	166.0785
4370.000000	83.430893	176.3361
4500.000000	83.198471	-171.5581
4620.000000	83.062508	-160.9356
4750.000000	82.914413	-149.1180
4870.000000	82.875381	-137.2931
5000.000000	83.202492	-125.7753
5150.000000	83.292267	-115.4808
5300.000000	83.105530	-105.7656
5450.000000	82.418228	-94.4586
5600.000000	82.089661	-78.8183
5800.000000	82.513206	-64.6381
6000.000000	81.705315	-55.8604
6150.000000	80.502647	-46.1341
6300.000000	79.384308	-33.5739
6500.000000	78.113647	-16.2952
6700.000000	76.878647	2.1707
6900.000000	75.883537	22.2660
7100.000000	75.157928	43.2013
7300.000000	74.906105	65.3038
7500.000000	75.616570	86.5172
7750.000000	77.218559	99.8926
8000.000000	77.144371	103.1522
8250.000000	75.636879	107.6318
8500.000000	73.307266	110.2493
8750.000000	66.792480	106.3463
9000.000000	55.034813	-147.0651
9250.000000	64.952682	-67.5175
9500.000000	70.245522	-49.1996
9750.000000	73.809219	-33.1196
10000.000000	77.471878	-22.5654
10300.000000	80.518646	-22.8329
10600.000000	81.272896	-34.3237
10900.000000	78.248352	-33.0983
11200.000000	75.865044	-14.4312
11500.000000	74.158051	9.0178
11800.000000	74.049545	35.0966
12200.000000	74.023788	53.6670
12500.000000	73.382301	70.1647
12800.000000	72.919716	82.4738
13200.000000	72.141800	102.7250
13600.000000	73.953964	110.9125
14000.000000	76.743935	85.9268
14500.000000	77.776588	41.1970
15000.000000	79.120956	16.6672
15500.000000	79.257904	7.0667
16000.000000	81.331024	8.2821
16500.000000	81.110901	-22.5046
17000.000000	74.290092	-17.9384
17500.000000	71.465790	12.9288
18000.000000	73.541504	26.9344
18500.000000	72.709618	9.7078
19000.000000	69.188187	-7.6596
19500.000000	63.452446	-20.5193
