* Measurement data measured by REW V5.20
* Source: Headset (USB-C to 3.5mm Headphone Jack Adapter), MICROPHONE (Master Volume), R, volume: 0.260
* Format: 256k Log Swept Sine, 1 sweep at -6.0 dBFS with no timing reference
* Dated: Jan 13, 2021 5:00:33 PM
* REW Settings:
*  C-weighting compensation: Off
*  Target level: 75.0 dB
* Note: ; 
* Measurement: HE6SEv2 Deafen Hybrid
* Smoothing: 1/48 octave
* Frequency Step: 1/24 octave
* Start Frequency: 20.000 Hz
*
* Freq(Hz)	SPL(dB)	Phase(degrees)
20.000000	79.031876	139.8278
20.600000	79.483192	135.3412
21.200001	79.939766	130.9105
21.799999	80.369316	126.2118
22.400000	80.737106	121.3935
23.000000	81.055725	116.5333
23.600000	81.313988	111.4870
24.299999	81.474312	105.5591
25.000000	81.501976	100.3585
25.799999	81.543945	95.4087
26.500000	81.618866	91.1201
27.200001	81.652466	86.7751
28.000000	81.646172	82.0346
29.000000	81.541687	76.2773
30.000000	81.319382	71.7594
30.700001	81.241699	69.1803
31.500000	81.156738	66.0098
32.500000	80.969971	62.6280
33.500000	80.846939	59.6516
34.500000	80.668640	56.6547
35.500000	80.505775	54.3125
36.500000	80.358215	51.8581
37.500000	80.169327	49.9620
38.700001	80.053284	48.0127
40.000000	79.891998	45.5823
41.200001	79.759537	43.8878
42.500000	79.652893	42.0853
43.700001	79.569038	40.3235
45.000000	79.399063	38.8406
46.200001	79.453011	37.4007
47.500000	79.135399	34.7558
48.700001	78.992462	35.7189
50.000000	79.068398	34.2349
51.500000	78.952812	33.3382
53.000000	78.893806	32.0553
54.500000	78.844498	31.1793
56.000000	78.775116	29.9910
58.000000	78.705856	29.1502
60.000000	78.636871	28.1811
61.500000	78.586777	27.2139
63.000000	78.498413	26.3717
65.000000	78.399773	25.5453
67.000000	78.299438	24.7163
69.000000	78.229202	23.9786
71.000000	78.161903	23.4078
73.000000	78.105515	22.9364
75.000000	78.038887	22.3503
77.500000	77.970146	21.9328
80.000000	77.914337	21.4432
82.500000	77.868347	20.9844
85.000000	77.809921	20.4971
87.500000	77.743584	20.1877
90.000000	77.711060	19.9779
92.500000	77.681549	19.6488
95.000000	77.657387	19.2952
97.500000	77.633148	18.9733
100.000000	77.603012	18.6481
103.000000	77.567238	18.4123
106.000000	77.549873	18.3213
109.000000	77.555397	18.1172
112.000000	77.546425	17.8906
115.000000	77.537605	17.6641
118.000000	77.545830	17.4661
122.000000	77.554741	17.0608
125.000000	77.526794	16.6953
128.000000	77.488510	16.5641
132.000000	77.449860	16.6176
136.000000	77.452408	16.6871
140.000000	77.458488	16.6919
145.000000	77.464661	16.7297
150.000000	77.517868	16.6335
155.000000	77.549820	16.2341
160.000000	77.491432	15.8062
165.000000	77.460854	16.1497
170.000000	77.486259	16.3498
175.000000	77.499512	16.3405
180.000000	77.518829	16.4718
185.000000	77.544495	16.5797
190.000000	77.584839	16.6609
195.000000	77.632156	16.6449
200.000000	77.684082	16.5117
206.000000	77.714325	16.3234
212.000000	77.734833	16.1864
218.000000	77.750481	16.0582
224.000000	77.768890	15.9384
230.000000	77.786118	15.9678
236.000000	77.823563	15.7850
243.000000	77.847351	15.4780
250.000000	77.856018	15.3384
258.000000	77.885841	14.9221
265.000000	77.861328	14.2373
272.000000	77.751526	13.7136
280.000000	77.560303	13.7541
290.000000	77.397850	14.8961
300.000000	77.351257	16.1970
307.000000	77.359009	16.9807
315.000000	77.382431	17.8344
325.000000	77.455826	18.8119
335.000000	77.535080	19.6179
345.000000	77.645363	20.3092
355.000000	77.720314	20.8167
365.000000	77.821968	21.3648
375.000000	77.907013	22.0207
387.000000	78.065865	22.5990
400.000000	78.277260	23.0168
412.000000	78.451309	23.0880
425.000000	78.618835	22.6349
437.000000	78.716576	22.3606
450.000000	78.810028	22.1552
462.000000	78.874611	22.0249
475.000000	78.970833	21.6898
487.000000	78.995720	21.3539
500.000000	79.035492	21.3518
515.000000	79.031944	21.3339
530.000000	79.135406	22.3287
545.000000	79.353546	22.2484
560.000000	79.513329	21.8036
580.000000	79.733734	20.2693
600.000000	79.653099	18.2226
615.000000	79.435150	17.3492
630.000000	79.221146	18.0100
650.000000	79.117142	19.4290
670.000000	79.193039	21.0796
690.000000	79.374397	21.7523
710.000000	79.543816	21.6820
730.000000	79.627800	21.2039
750.000000	79.573372	20.8765
775.000000	79.629272	22.1962
800.000000	79.821693	22.2691
825.000000	79.933754	21.0635
850.000000	79.861145	21.4284
875.000000	79.981323	21.7592
900.000000	79.969551	22.0269
925.000000	80.114571	22.4777
950.000000	80.321899	22.9279
975.000000	80.599899	22.1213
1000.000000	80.852463	20.3156
1030.000000	80.869080	15.5580
1060.000000	80.281105	15.2706
1090.000000	80.151764	16.0078
1120.000000	80.132439	15.3762
1150.000000	80.012680	14.2004
1180.000000	79.457779	15.7439
1220.000000	79.460182	17.1025
1250.000000	79.660789	18.2118
1280.000000	79.545174	16.1235
1320.000000	79.123238	17.4835
1360.000000	79.232613	20.1064
1400.000000	79.495621	19.4926
1450.000000	79.103523	19.3336
1500.000000	78.861969	19.0276
1550.000000	77.750893	19.4579
1600.000000	77.817413	26.8063
1650.000000	77.906151	29.0676
1700.000000	78.379745	36.1892
1750.000000	78.931389	31.9519
1800.000000	78.834747	34.7725
1850.000000	78.901276	33.7394
1900.000000	79.248795	35.0250
1950.000000	79.153206	33.8113
2000.000000	79.388855	38.3929
2060.000000	80.140015	39.8342
2120.000000	80.610191	39.1125
2180.000000	81.613953	42.4858
2240.000000	82.474083	37.5735
2300.000000	82.858475	34.5012
2360.000000	83.361320	29.8050
2430.000000	83.415939	27.9765
2500.000000	83.718971	24.3876
2580.000000	83.775002	21.7618
2650.000000	83.621597	16.5554
2720.000000	83.585915	18.8860
2800.000000	83.441879	16.8030
2900.000000	83.537094	16.2703
3000.000000	83.339561	21.5106
3070.000000	84.437004	24.4669
3150.000000	84.860794	20.1001
3250.000000	84.959068	17.8472
3350.000000	84.730736	16.1145
3450.000000	84.434837	19.5602
3550.000000	84.504150	27.4030
3650.000000	86.842369	34.2314
3750.000000	87.328926	20.9908
3870.000000	86.649712	19.9032
4000.000000	86.598663	19.0437
4120.000000	85.971199	21.6823
4250.000000	85.776451	24.5135
4370.000000	86.209900	20.7633
4500.000000	84.400772	35.6836
4620.000000	86.291412	35.4382
4750.000000	84.410767	26.4280
4870.000000	86.838409	64.7664
5000.000000	88.988968	44.0580
5150.000000	88.377167	35.0283
5300.000000	87.390915	35.0329
5450.000000	87.991898	40.0657
5600.000000	88.259430	35.7347
5800.000000	88.082809	31.6093
6000.000000	88.345406	26.4906
6150.000000	88.084900	19.9181
6300.000000	87.446236	11.7287
6500.000000	85.995445	3.5040
6700.000000	84.263657	-1.3156
6900.000000	82.547279	-2.8551
7100.000000	81.004204	-2.1503
7300.000000	79.840530	2.4042
7500.000000	79.424171	6.4554
7750.000000	79.599243	9.2219
8000.000000	80.337173	6.1907
8250.000000	81.316460	-8.4427
8500.000000	79.049149	-34.6970
8750.000000	73.842567	-44.8984
9000.000000	67.763390	-13.3192
9250.000000	69.238411	24.0875
9500.000000	72.563812	36.8736
9750.000000	75.327644	31.3627
10000.000000	76.266914	18.8835
10300.000000	74.905106	5.4144
10600.000000	73.686012	21.6241
10900.000000	75.691696	20.9834
11200.000000	76.971428	12.4124
11500.000000	78.587463	1.6655
11800.000000	78.954163	-17.6577
12200.000000	77.768082	-42.6773
12500.000000	75.539581	-56.5424
12800.000000	74.741188	-64.1701
13200.000000	73.958939	-85.4957
13600.000000	73.315483	-110.6031
14000.000000	74.022552	-147.2188
14500.000000	74.606110	143.0015
15000.000000	73.411133	97.6199
15500.000000	74.596703	62.2714
16000.000000	76.253471	30.7201
16500.000000	78.946289	-24.9528
17000.000000	73.878960	-78.7103
17500.000000	70.034866	-98.6241
18000.000000	66.736526	-110.4549
18500.000000	67.789413	-136.5786
19000.000000	68.315331	-174.9055
19500.000000	66.116783	125.0442
20000.000000	62.007679	65.1367
