* Measurement data measured by REW V5.20
* Source: Headset (USB-C to 3.5mm Headphone Jack Adapter), MICROPHONE (Master Volume), R, volume: 0.260
* Format: 256k Log Swept Sine, 1 sweep at -6.0 dBFS with no timing reference
* Dated: Jan 5, 2021 7:09:15 PM
* REW Settings:
*  C-weighting compensation: Off
*  Target level: 75.0 dB
* Note: ; 
* Measurement: Jan 5
* Smoothing: 1/48 octave
* Frequency Step: 1/24 octave
* Start Frequency: 20.000 Hz
*
* Freq(Hz)	SPL(dB)	Phase(degrees)
20.000000	76.229271	64.2087
20.600000	76.328888	62.9760
21.200001	76.417603	61.5394
21.799999	76.465263	60.0667
22.400000	76.481171	58.8233
23.000000	76.499710	57.9381
23.600000	76.575401	57.3396
24.299999	76.779266	56.2538
25.000000	76.954254	53.8593
25.799999	76.832703	50.8236
26.500000	76.591721	50.1014
27.200001	76.584229	50.4754
28.000000	76.749252	49.4289
29.000000	76.673210	47.0417
30.000000	76.500443	46.3362
30.700001	76.520500	46.1812
31.500000	76.620651	45.5686
32.500000	76.707245	44.0462
33.500000	76.684608	42.8301
34.500000	76.728035	42.2038
35.500000	76.793671	41.2601
36.500000	76.824547	40.6245
37.500000	76.899597	40.0189
38.700001	76.950607	39.1254
40.000000	76.996292	37.9476
41.200001	76.990875	37.0209
42.500000	77.080963	36.0150
43.700001	77.071579	34.8139
45.000000	77.172386	34.1260
46.200001	77.192955	32.5507
47.500000	77.142242	32.0780
48.700001	77.138428	31.7713
50.000000	77.274101	31.3549
51.500000	77.198013	29.8085
53.000000	77.287811	28.9022
54.500000	77.173843	27.9865
56.000000	77.225891	27.3077
58.000000	77.304810	26.6529
60.000000	77.223587	25.9806
61.500000	77.249756	25.3202
63.000000	77.199326	25.1205
65.000000	77.277679	24.6464
67.000000	77.294548	24.0422
69.000000	77.248947	23.4042
71.000000	77.264297	22.8956
73.000000	77.271164	22.4299
75.000000	77.276840	21.8411
77.500000	77.272018	21.4577
80.000000	77.231018	20.7717
82.500000	77.208740	20.5343
85.000000	77.198204	20.3390
87.500000	77.186424	19.9413
90.000000	77.204178	19.4543
92.500000	77.199791	19.1135
95.000000	77.148857	19.2096
97.500000	77.179565	18.9351
100.000000	77.154678	18.1779
103.000000	77.187263	17.9772
106.000000	77.228111	17.5215
109.000000	77.234787	17.2775
112.000000	77.190216	16.8771
115.000000	77.198380	16.3636
118.000000	77.187492	16.0736
122.000000	77.217972	15.8694
125.000000	77.181534	15.6173
128.000000	77.165039	15.6172
132.000000	77.169983	15.4402
136.000000	77.149345	15.2640
140.000000	77.132446	15.0948
145.000000	77.085365	14.7937
150.000000	77.043373	14.8027
155.000000	76.995331	15.0021
160.000000	76.970253	15.2635
165.000000	76.942734	15.6921
170.000000	76.930183	15.9550
175.000000	76.893959	16.2119
180.000000	76.967468	17.0448
185.000000	77.017578	17.5244
190.000000	77.108315	18.0582
195.000000	77.222748	18.3937
200.000000	77.347549	18.3036
206.000000	77.425781	18.3503
212.000000	77.499496	17.8762
218.000000	77.530785	17.7537
224.000000	77.573120	17.5684
230.000000	77.603378	17.5032
236.000000	77.613754	17.4608
243.000000	77.637985	17.6394
250.000000	77.690544	17.5886
258.000000	77.782097	17.6055
265.000000	77.839584	17.5050
272.000000	77.862877	17.1587
280.000000	77.875381	16.9066
290.000000	77.819847	16.9221
300.000000	77.830994	16.8581
307.000000	77.861847	17.0266
315.000000	77.810486	17.2042
325.000000	77.810516	17.4807
335.000000	77.849449	18.1937
345.000000	77.890625	18.3127
355.000000	77.943665	18.8304
365.000000	77.983353	19.2632
375.000000	78.045296	19.9517
387.000000	78.169380	20.3116
400.000000	78.332291	20.6566
412.000000	78.467941	20.5071
425.000000	78.581291	20.3413
437.000000	78.652626	20.1758
450.000000	78.745064	20.0059
462.000000	78.781891	19.1896
475.000000	78.741928	19.1749
487.000000	78.715202	19.2440
500.000000	78.756859	19.9111
515.000000	78.843758	20.2526
530.000000	78.988419	20.7388
545.000000	79.239120	20.2979
560.000000	79.350342	18.9552
580.000000	79.290390	16.6039
600.000000	78.945747	16.3209
615.000000	78.744255	17.1500
630.000000	78.650826	18.6085
650.000000	78.641724	20.3761
670.000000	78.842781	22.1996
690.000000	79.093842	22.5214
710.000000	79.241791	22.1509
730.000000	79.284393	21.7665
750.000000	79.279129	22.0326
775.000000	79.432846	23.1793
800.000000	79.689903	22.4393
825.000000	79.555969	21.2170
850.000000	79.558838	22.6315
875.000000	79.745682	22.7498
900.000000	79.882477	22.6304
925.000000	79.956139	22.6347
950.000000	80.171600	22.3185
975.000000	80.397255	20.4569
1000.000000	80.278831	18.4247
1030.000000	79.981911	16.1556
1060.000000	79.719666	17.7946
1090.000000	79.758873	17.8534
1120.000000	79.580490	16.4022
1150.000000	79.326057	16.2692
1180.000000	79.063011	18.6094
1220.000000	79.101639	19.2147
1250.000000	79.140152	19.0263
1280.000000	78.863136	18.3716
1320.000000	78.473389	20.0693
1360.000000	78.613953	22.7067
1400.000000	78.561546	20.9426
1450.000000	77.923920	23.2749
1500.000000	77.451439	27.7037
1550.000000	77.254974	33.5437
1600.000000	77.691162	40.4535
1650.000000	78.102730	42.2776
1700.000000	79.010315	43.2301
1750.000000	78.981133	43.3348
1800.000000	79.518845	45.6161
1850.000000	79.594139	45.1812
1900.000000	79.930229	44.9476
1950.000000	80.039330	47.5933
2000.000000	80.830177	48.8752
2060.000000	81.761757	48.5371
2120.000000	82.176193	47.9340
2180.000000	83.254837	45.8716
2240.000000	83.900398	41.3888
2300.000000	84.390121	38.1208
2360.000000	84.616516	33.9153
2430.000000	84.988602	30.8088
2500.000000	85.163467	25.9000
2580.000000	85.176300	22.6494
2650.000000	84.970482	20.5992
2720.000000	84.994293	19.9539
2800.000000	84.790413	18.0795
2900.000000	84.866615	18.9430
3000.000000	85.811844	22.7028
3070.000000	86.041779	19.2012
3150.000000	86.068199	16.8477
3250.000000	85.857590	19.5517
3350.000000	86.113098	20.6841
3450.000000	86.544022	22.9529
3550.000000	88.291725	27.4696
3650.000000	88.688255	16.3144
3750.000000	88.170242	11.3717
3870.000000	87.754868	10.5688
4000.000000	87.267105	10.3032
4120.000000	86.499680	12.3077
4250.000000	86.403488	19.0362
4370.000000	85.374458	30.9557
4500.000000	87.258835	29.1247
4620.000000	85.940140	33.0459
4750.000000	89.209091	45.5693
4870.000000	90.823021	30.9174
5000.000000	89.817146	15.6101
5150.000000	88.295288	14.8188
5300.000000	87.085960	16.5564
5450.000000	86.980896	20.2526
5600.000000	86.817802	21.0175
5800.000000	86.732323	21.4658
6000.000000	86.696602	16.6388
6150.000000	86.351357	11.8123
6300.000000	85.578491	6.3085
6500.000000	84.158615	1.6970
6700.000000	82.598511	-1.5725
6900.000000	80.849434	-1.1435
7100.000000	79.582184	3.0448
7300.000000	78.763336	6.4081
7500.000000	78.240509	10.8116
7750.000000	78.112373	16.9216
8000.000000	79.177452	19.4379
8250.000000	80.257118	8.5143
8500.000000	78.814995	-5.6317
8750.000000	76.785370	-0.2167
9000.000000	77.399193	4.7358
9250.000000	78.448555	-4.6041
9500.000000	76.854538	-21.5493
9750.000000	73.911835	-15.5264
10000.000000	74.204117	-11.8694
10300.000000	73.687195	-16.3275
10600.000000	70.233879	-19.0281
10900.000000	68.989380	6.6984
11200.000000	73.504448	18.4636
11500.000000	75.865829	9.4251
11800.000000	77.916039	-17.3826
12200.000000	74.682472	-51.6703
12500.000000	72.223038	-65.2845
12800.000000	70.470322	-76.6932
13200.000000	66.496399	-92.5838
13600.000000	65.855385	-102.0635
14000.000000	66.571709	-139.3790
14500.000000	70.041512	158.3716
15000.000000	70.217941	100.2253
15500.000000	70.942398	84.5466
16000.000000	77.062851	46.4583
16500.000000	75.079514	-15.6876
17000.000000	71.481323	-40.3689
17500.000000	69.066460	-58.0637
18000.000000	72.389008	-59.0950
18500.000000	74.238586	-126.9253
19000.000000	70.604317	176.0991
19500.000000	67.141075	125.7350
20000.000000	62.623852	56.5967
