* Measurement data measured by REW V5.20 Beta 59
* Source: Headset (USB-C to 3.5mm Headphone Jack Adapter), MICROPHONE (Master Volume), R, volume: 0.258
* Format: 256k Log Swept Sine, 1 sweep at -6.0 dBFS with no timing reference
* Dated: Nov 27, 2020 11:35:00 AM
* REW Settings:
*  C-weighting compensation: Off
*  Target level: 75.0 dB
* Note: ; 
* Measurement: Koss KPH30i Yaxi
* Smoothing: 1/48 octave
* Frequency Step: 1/24 octave
* Start Frequency: 20.600 Hz
*
* Freq(Hz)	SPL(dB)	Phase(degrees)
20.600000	70.270142	-32.8881
21.200001	70.746452	-34.5837
21.799999	71.194595	-36.7802
22.400000	71.524109	-38.7413
23.000000	71.782959	-39.8167
23.600000	72.088509	-40.3800
24.299999	72.511971	-41.9639
25.000000	72.812271	-44.8976
25.799999	73.011345	-47.4804
26.500000	73.377228	-48.4551
27.200001	73.850998	-50.1434
28.000000	74.065437	-52.7063
29.000000	74.106697	-54.1228
30.000000	74.517181	-56.9863
30.700001	74.810707	-59.9666
31.500000	75.116936	-62.0460
32.500000	75.555290	-63.7580
33.500000	75.846123	-66.0384
34.500000	76.114227	-68.3211
35.500000	76.409042	-70.6646
36.500000	76.620056	-72.5159
37.500000	76.870865	-74.4019
38.700001	77.183945	-77.3954
40.000000	77.528610	-79.8884
41.200001	77.760880	-82.3993
42.500000	77.983887	-84.3592
43.700001	78.271042	-86.2249
45.000000	78.544281	-88.6231
46.200001	78.753738	-90.6013
47.500000	79.002518	-93.0874
48.700001	79.074738	-95.3607
50.000000	79.331413	-97.1383
51.500000	79.525002	-99.6798
53.000000	79.731781	-101.9480
54.500000	79.932106	-104.0012
56.000000	80.049347	-106.1584
58.000000	80.228806	-108.8339
60.000000	80.392426	-111.2958
61.500000	80.573608	-113.4476
63.000000	80.683594	-115.2861
65.000000	80.785332	-118.1659
67.000000	80.851410	-120.7318
69.000000	80.879013	-123.1652
71.000000	80.846146	-125.1860
73.000000	80.797058	-126.7971
75.000000	80.746864	-127.2431
77.500000	80.885406	-129.3349
80.000000	80.956642	-131.3954
82.500000	80.993423	-133.1506
85.000000	81.028282	-134.4840
87.500000	81.096710	-135.8149
90.000000	81.282272	-138.2978
92.500000	81.282623	-139.3885
95.000000	81.253532	-141.3828
97.500000	81.118439	-142.6612
100.000000	81.169846	-142.9540
103.000000	81.376335	-144.2006
106.000000	81.394577	-146.1391
109.000000	81.438362	-147.7116
112.000000	81.464302	-149.3363
115.000000	81.495483	-150.8957
118.000000	81.512543	-152.2616
122.000000	81.484543	-154.1831
125.000000	81.465149	-155.4595
128.000000	81.443207	-156.6124
132.000000	81.427696	-158.0817
136.000000	81.400856	-159.4863
140.000000	81.366165	-160.8265
145.000000	81.312996	-162.4688
150.000000	81.257416	-164.0139
155.000000	81.193253	-165.3634
160.000000	81.129929	-166.6229
165.000000	81.081367	-167.8579
170.000000	81.017273	-169.0519
175.000000	80.945206	-170.2772
180.000000	80.858894	-171.5056
185.000000	80.775230	-172.7349
190.000000	80.651596	-174.0197
195.000000	80.474426	-175.2854
200.000000	80.212639	-176.1237
206.000000	79.904686	-175.8851
212.000000	79.778214	-174.9817
218.000000	79.751160	-174.6721
224.000000	79.741066	-174.5969
230.000000	79.732384	-174.7448
236.000000	79.722954	-175.0753
243.000000	79.679543	-175.6436
250.000000	79.613548	-176.1881
258.000000	79.508713	-176.5600
265.000000	79.434769	-176.7426
272.000000	79.377411	-176.9042
280.000000	79.318977	-177.2741
290.000000	79.213188	-177.6420
300.000000	79.087585	-178.0716
307.000000	78.959702	-178.0951
315.000000	78.843369	-177.8335
325.000000	78.760689	-177.3449
335.000000	78.716606	-177.0681
345.000000	78.671074	-176.9116
355.000000	78.612991	-176.8202
365.000000	78.555374	-176.6806
375.000000	78.498962	-176.4655
387.000000	78.445404	-176.1766
400.000000	78.400269	-175.8100
412.000000	78.357742	-175.5900
425.000000	78.317993	-175.3855
437.000000	78.280197	-175.1803
450.000000	78.230469	-174.9491
462.000000	78.177849	-174.7896
475.000000	78.120827	-174.4305
487.000000	78.074455	-174.2239
500.000000	78.026794	-173.8111
515.000000	77.973099	-173.4289
530.000000	77.892395	-172.9494
545.000000	77.813629	-172.2185
560.000000	77.781799	-171.3624
580.000000	77.783531	-170.2890
600.000000	77.815842	-169.5528
615.000000	77.834198	-169.1629
630.000000	77.813545	-168.9698
650.000000	77.714386	-167.9534
670.000000	77.757294	-166.7031
690.000000	77.811935	-165.9388
710.000000	77.865112	-165.1660
730.000000	77.921165	-164.7612
750.000000	77.972290	-164.5809
775.000000	77.931320	-164.8619
800.000000	77.732193	-163.7198
825.000000	77.756004	-161.9080
850.000000	77.831772	-160.7712
875.000000	77.908112	-159.7861
900.000000	77.983246	-159.0151
925.000000	78.046608	-158.4081
950.000000	78.091888	-157.7447
975.000000	78.134468	-156.9915
1000.000000	78.180283	-156.2981
1030.000000	78.250992	-155.3307
1060.000000	78.307266	-154.4847
1090.000000	78.354683	-153.4726
1120.000000	78.446213	-152.2178
1150.000000	78.567795	-151.2362
1180.000000	78.685318	-150.3636
1220.000000	78.839157	-149.1404
1250.000000	78.978905	-148.2461
1280.000000	79.128304	-147.3354
1320.000000	79.365631	-146.1667
1360.000000	79.654709	-145.2950
1400.000000	79.936882	-144.8750
1450.000000	80.313126	-144.1227
1500.000000	80.717934	-144.4602
1550.000000	81.046165	-144.9202
1600.000000	81.462311	-146.1145
1650.000000	81.429588	-146.8231
1700.000000	81.855362	-147.5857
1750.000000	82.073471	-149.1526
1800.000000	82.492699	-150.4639
1850.000000	82.631310	-153.2288
1900.000000	83.142479	-154.6666
1950.000000	83.226456	-158.1767
2000.000000	83.541214	-160.3143
2060.000000	83.666733	-164.5161
2120.000000	83.939766	-167.7127
2180.000000	83.858109	-171.0315
2240.000000	84.056107	-174.9697
2300.000000	84.108841	-177.6699
2360.000000	84.015358	179.1470
2430.000000	83.873703	176.0007
2500.000000	83.825653	172.5120
2580.000000	83.615837	169.7422
2650.000000	83.330963	169.2012
2720.000000	83.009483	167.8303
2800.000000	82.941833	169.6148
2900.000000	83.217468	169.7469
3000.000000	83.590332	168.2087
3070.000000	83.683388	164.4555
3150.000000	83.357796	160.6013
3250.000000	82.790352	159.9480
3350.000000	82.454697	161.2483
3450.000000	82.396912	161.7093
3550.000000	82.372467	160.9668
3650.000000	82.390823	158.3887
3750.000000	82.464546	152.6795
3870.000000	81.886009	141.9260
4000.000000	79.998474	126.4556
4120.000000	76.239532	109.6653
4250.000000	69.087723	88.1427
4370.000000	64.105423	-5.4696
4500.000000	73.269867	-62.3456
4620.000000	78.119324	-78.9833
4750.000000	80.950356	-95.0784
4870.000000	82.080811	-104.9663
5000.000000	83.118340	-111.2078
5150.000000	84.765923	-117.2968
5300.000000	86.081818	-133.7798
5450.000000	85.600327	-151.5457
5600.000000	83.896172	-165.3522
5800.000000	80.906845	-167.4052
6000.000000	78.778267	-173.2426
6150.000000	75.190170	-167.9707
6300.000000	73.496056	-144.0845
6500.000000	75.067039	-124.4616
6700.000000	77.076004	-123.0974
6900.000000	77.682266	-129.6265
7100.000000	77.462021	-130.6470
7300.000000	78.264526	-132.9824
7500.000000	78.254616	-141.2504
7750.000000	78.102898	-141.7379
8000.000000	79.259590	-149.4902
8250.000000	79.795311	-165.2472
8500.000000	78.836418	176.7947
8750.000000	76.718613	166.1592
9000.000000	75.492790	166.4673
9250.000000	76.110809	156.1156
9500.000000	74.248573	129.9944
9750.000000	69.238892	118.7638
10000.000000	63.862366	130.3774
10300.000000	60.534004	166.4198
10600.000000	62.640656	-163.0919
10900.000000	65.603088	-156.4656
11200.000000	68.366470	-161.9452
11500.000000	70.018509	-178.4890
11800.000000	70.422638	161.4056
12200.000000	69.974411	134.0887
12500.000000	68.857994	108.2282
12800.000000	65.758469	85.0579
13200.000000	61.367752	66.0348
13600.000000	56.683945	45.8876
14000.000000	48.697769	-45.1819
14500.000000	56.577957	-172.0234
15000.000000	62.206940	151.0775
15500.000000	65.362366	119.8833
16000.000000	69.711815	71.7776
16500.000000	68.762573	-12.2633
17000.000000	60.879658	-65.3550
17500.000000	55.435902	-83.4998
18000.000000	55.925175	-122.3096
18500.000000	55.330872	176.2334
19000.000000	56.181164	104.4838
19500.000000	55.903179	7.8324
