* Measurement data measured by REW V5.20 Beta 59
* Source: Headset (USB-C to 3.5mm Headphone Jack Adapter), MICROPHONE (Master Volume), R, volume: 0.258
* Format: 256k Log Swept Sine, 1 sweep at -6.0 dBFS with no timing reference
* Dated: Nov 25, 2020 4:11:57 PM
* REW Settings:
*  C-weighting compensation: Off
*  Target level: 75.0 dB
* Note: ; 
* Measurement: KSC35 Yaxi
* Smoothing: 1/48 octave
* Frequency Step: 1/24 octave
* Start Frequency: 20.600 Hz
*
* Freq(Hz)	SPL(dB)	Phase(degrees)
20.600000	68.336739	157.3116
21.200001	68.792625	156.6768
21.799999	69.389565	155.2332
22.400000	69.819397	152.6955
23.000000	70.030029	150.3900
23.600000	70.252800	148.5685
24.299999	70.637680	145.6510
25.000000	70.940315	142.6526
25.799999	71.328407	141.7658
26.500000	71.887039	141.0208
27.200001	72.267952	138.3653
28.000000	72.366737	135.5101
29.000000	72.720016	133.2831
30.000000	73.185257	129.9895
30.700001	73.417244	128.1861
31.500000	73.721542	126.6202
32.500000	74.169136	124.5074
33.500000	74.577271	121.9905
34.500000	74.757187	119.3190
35.500000	74.921265	117.4035
36.500000	75.247360	115.0540
37.500000	75.515480	112.5844
38.700001	75.888702	110.3282
40.000000	76.261765	107.1396
41.200001	76.439240	105.3868
42.500000	76.698067	103.4899
43.700001	77.047043	100.5729
45.000000	77.290932	97.3218
46.200001	77.508240	96.2689
47.500000	77.756874	93.9677
48.700001	77.947968	91.6799
50.000000	78.240448	88.6913
51.500000	78.454269	86.7641
53.000000	78.626587	84.5118
54.500000	78.735825	82.0132
56.000000	78.959152	79.9847
58.000000	79.172836	77.3429
60.000000	79.485168	75.3344
61.500000	79.728111	72.3864
63.000000	79.799469	70.7089
65.000000	79.765228	68.3492
67.000000	80.042229	65.5202
69.000000	80.100288	63.4432
71.000000	80.188751	61.1073
73.000000	80.274452	58.9869
75.000000	80.347458	56.9650
77.500000	80.460434	54.1918
80.000000	80.542488	51.6397
82.500000	80.619545	49.0991
85.000000	80.659332	46.7737
87.500000	80.650787	44.2913
90.000000	80.637718	41.9886
92.500000	80.576477	39.7507
95.000000	80.447556	38.1696
97.500000	80.338509	36.3760
100.000000	80.226135	35.1672
103.000000	80.210777	33.9064
106.000000	80.204338	33.3497
109.000000	80.279259	32.3270
112.000000	80.377731	31.1049
115.000000	80.437935	29.5832
118.000000	80.485680	27.9378
122.000000	80.495148	25.8789
125.000000	80.500977	24.4117
128.000000	80.479820	22.9935
132.000000	80.439987	21.3355
136.000000	80.405983	19.6928
140.000000	80.376648	18.0531
145.000000	80.302887	16.0077
150.000000	80.174896	13.9255
155.000000	79.965858	12.2793
160.000000	79.754944	11.5025
165.000000	79.665405	11.2171
170.000000	79.648659	10.6438
175.000000	79.637604	9.6650
180.000000	79.588951	8.7476
185.000000	79.569611	7.6614
190.000000	79.527428	6.4502
195.000000	79.462631	4.9631
200.000000	79.322540	3.4025
206.000000	79.018852	2.0589
212.000000	78.735413	1.9495
218.000000	78.557045	2.1720
224.000000	78.417580	2.4528
230.000000	78.362503	2.7341
236.000000	78.333984	2.6330
243.000000	78.285881	2.3752
250.000000	78.231827	2.1259
258.000000	78.164413	1.7602
265.000000	78.105911	1.3350
272.000000	78.033012	1.0221
280.000000	77.944633	0.5725
290.000000	77.818459	0.1191
300.000000	77.678085	-0.2166
307.000000	77.565216	-0.4944
315.000000	77.430656	-0.5654
325.000000	77.263420	-0.1449
335.000000	77.174736	0.1595
345.000000	77.085579	0.2926
355.000000	76.992126	0.4769
365.000000	76.901512	0.7570
375.000000	76.805870	1.0085
387.000000	76.718437	1.4275
400.000000	76.629684	1.8733
412.000000	76.571976	2.2220
425.000000	76.488052	2.5537
437.000000	76.416580	2.9221
450.000000	76.329361	3.3533
462.000000	76.260635	3.7276
475.000000	76.181198	4.1798
487.000000	76.113182	4.6170
500.000000	76.021584	5.1876
515.000000	75.926338	6.0362
530.000000	75.882492	7.0740
545.000000	75.837967	7.8793
560.000000	75.795013	8.7192
580.000000	75.769928	9.7858
600.000000	75.763046	10.9410
615.000000	75.750313	11.5796
630.000000	75.743347	12.3796
650.000000	75.736542	13.4169
670.000000	75.764999	14.3522
690.000000	75.778984	15.0705
710.000000	75.732941	15.7179
730.000000	75.720093	17.0875
750.000000	75.773636	18.0229
775.000000	75.806679	19.0910
800.000000	75.850052	20.0529
825.000000	75.870995	21.0625
850.000000	75.911308	22.0434
875.000000	75.949875	22.8533
900.000000	75.976624	23.8314
925.000000	76.011322	24.7294
950.000000	76.035675	25.6975
975.000000	76.079002	26.6835
1000.000000	76.115761	27.6062
1030.000000	76.169426	28.7938
1060.000000	76.226669	29.9602
1090.000000	76.285004	31.1677
1120.000000	76.348694	32.3360
1150.000000	76.413063	33.6246
1180.000000	76.459259	34.9741
1220.000000	76.602310	37.0089
1250.000000	76.740791	38.3587
1280.000000	76.877159	39.5230
1320.000000	77.047485	41.3065
1360.000000	77.302040	43.1600
1400.000000	77.589256	44.8008
1450.000000	77.991539	47.0412
1500.000000	78.586639	47.8778
1550.000000	78.999588	47.4727
1600.000000	79.254700	47.7547
1650.000000	79.629333	48.0982
1700.000000	80.012749	48.0979
1750.000000	80.507072	47.9871
1800.000000	81.009857	46.6256
1850.000000	81.342537	45.6400
1900.000000	81.877556	43.9295
1950.000000	82.264832	41.5282
2000.000000	82.703926	40.1021
2060.000000	83.351486	36.0376
2120.000000	83.718727	33.5125
2180.000000	84.146194	28.1576
2240.000000	84.413811	24.9940
2300.000000	84.578865	20.2940
2360.000000	84.677223	17.0233
2430.000000	84.811470	14.0757
2500.000000	84.781372	10.2333
2580.000000	84.996849	6.8048
2650.000000	85.085655	4.6440
2720.000000	85.221764	1.4416
2800.000000	85.253311	-1.3576
2900.000000	85.163132	-6.3201
3000.000000	84.960236	-8.4539
3070.000000	84.962715	-10.0619
3150.000000	85.014732	-12.8364
3250.000000	84.999207	-15.8579
3350.000000	84.702194	-18.8660
3450.000000	84.356956	-22.6957
3550.000000	84.018524	-26.0800
3650.000000	83.864510	-29.2942
3750.000000	83.421745	-36.8459
3870.000000	82.635513	-43.8698
4000.000000	81.813385	-64.9336
4120.000000	78.540039	-90.5713
4250.000000	74.042213	-138.5782
4370.000000	71.502159	153.0745
4500.000000	73.936882	110.7412
4620.000000	75.323349	101.5531
4750.000000	78.119965	112.2624
4870.000000	82.667931	112.4203
5000.000000	86.637352	98.4036
5150.000000	89.548782	71.9560
5300.000000	89.878113	42.4662
5450.000000	88.439819	21.8837
5600.000000	86.730843	9.3431
5800.000000	84.371223	-4.1539
6000.000000	80.704208	-16.6378
6150.000000	76.544243	-14.8153
6300.000000	73.167465	9.4912
6500.000000	73.972168	32.6519
6700.000000	74.572815	40.4658
6900.000000	75.243874	46.9664
7100.000000	76.415253	49.3216
7300.000000	77.056168	44.5021
7500.000000	77.167953	44.0069
7750.000000	78.394569	40.7142
8000.000000	79.611946	31.7824
8250.000000	80.306923	13.0643
8500.000000	79.381371	-6.3901
8750.000000	77.526474	-19.4127
9000.000000	75.966171	-25.9222
9250.000000	75.205139	-33.3712
9500.000000	74.340668	-47.4330
9750.000000	72.134857	-63.1005
10000.000000	69.780685	-73.0814
10300.000000	65.471596	-92.2697
10600.000000	57.746002	-98.2481
10900.000000	52.824081	16.2287
11200.000000	62.187241	22.3744
11500.000000	65.970734	-1.7016
11800.000000	66.291977	-37.4399
12200.000000	60.241814	-75.6343
12500.000000	52.034035	-18.2419
12800.000000	58.593739	2.1560
13200.000000	59.990345	-17.5880
13600.000000	57.258484	-32.3705
14000.000000	55.222111	8.7778
14500.000000	62.493786	2.2789
15000.000000	65.237236	-31.5419
15500.000000	67.064980	-65.6692
16000.000000	68.935005	-112.5475
16500.000000	69.848427	178.2003
17000.000000	64.767281	114.3867
17500.000000	58.809631	95.4440
18000.000000	63.238335	75.1271
18500.000000	65.133614	-4.5879
19000.000000	63.442181	-99.4083
19500.000000	57.957966	153.1727
