* Measurement data measured by REW V5.20
* Source: Headset (USB-C to 3.5mm Headphone Jack Adapter), MICROPHONE (Master Volume), R, volume: 0.260
* Format: 256k Log Swept Sine, 1 sweep at -6.0 dBFS with no timing reference
* Dated: Jan 15, 2021 5:39:59 PM
* REW Settings:
*  C-weighting compensation: Off
*  Target level: 75.0 dB
* Note: 
* Measurement: Jan 15
* Smoothing: 1/48 octave
* Frequency Step: 1/24 octave
* Start Frequency: 20.600 Hz
*
* Freq(Hz)	SPL(dB)	Phase(degrees)
20.600000	55.017838	8.4625
21.200001	55.550426	9.0305
21.799999	56.042866	8.6076
22.400000	56.572441	10.7975
23.000000	57.624081	13.0121
23.600000	58.726685	9.7548
24.299999	59.047935	0.3771
25.000000	58.296497	-7.6444
25.799999	57.498283	-8.7614
26.500000	58.085632	-6.5633
27.200001	59.569397	-6.8688
28.000000	61.229374	-10.4895
29.000000	62.249489	-14.2551
30.000000	62.783825	-16.1744
30.700001	63.019192	-19.4578
31.500000	63.150955	-20.6372
32.500000	64.139206	-17.7694
33.500000	64.732437	-19.3305
34.500000	64.260132	-19.4025
35.500000	64.088737	-18.2622
36.500000	64.504807	-19.2276
37.500000	65.501183	-25.1946
38.700001	66.093430	-32.5835
40.000000	66.192688	-28.4754
41.200001	66.742966	-31.2477
42.500000	67.243874	-42.6886
43.700001	67.825066	-39.0743
45.000000	68.690903	-38.4250
46.200001	68.546310	-44.9864
47.500000	69.418144	-49.5859
48.700001	69.637085	-51.7512
50.000000	69.711456	-52.4680
51.500000	70.294174	-55.0595
53.000000	70.421021	-58.0246
54.500000	70.810333	-59.8577
56.000000	71.337502	-60.6237
58.000000	71.889328	-64.6621
60.000000	72.370735	-71.5824
61.500000	72.341293	-72.5727
63.000000	72.675568	-76.5462
65.000000	72.875053	-78.8381
67.000000	72.980942	-82.1947
69.000000	73.471474	-83.4787
71.000000	73.427048	-86.3823
73.000000	73.673233	-88.1828
75.000000	73.714478	-90.4314
77.500000	73.800995	-94.2771
80.000000	74.075531	-98.1068
82.500000	74.220856	-100.1425
85.000000	74.390038	-101.0322
87.500000	74.359093	-104.5615
90.000000	74.557228	-107.6578
92.500000	74.490364	-109.4265
95.000000	74.522575	-111.3361
97.500000	74.593521	-113.2658
100.000000	74.681808	-114.9714
103.000000	74.745644	-117.1160
106.000000	74.752426	-119.2550
109.000000	74.729576	-121.2273
112.000000	74.749214	-122.2077
115.000000	74.822617	-124.5736
118.000000	74.779778	-126.4987
122.000000	74.860611	-127.5863
125.000000	74.824524	-128.6929
128.000000	74.798775	-130.0388
132.000000	74.696732	-131.7295
136.000000	74.727089	-133.0497
140.000000	74.675156	-135.4221
145.000000	74.627022	-135.3543
150.000000	74.561409	-136.8158
155.000000	74.543221	-137.3018
160.000000	74.516998	-138.1155
165.000000	74.552460	-139.1588
170.000000	74.449883	-140.2140
175.000000	74.451889	-140.3192
180.000000	74.425514	-141.1355
185.000000	74.483482	-141.7500
190.000000	74.447174	-141.9775
195.000000	74.470169	-142.1850
200.000000	74.347778	-142.9435
206.000000	74.386200	-143.1011
212.000000	74.376373	-143.5459
218.000000	74.544708	-143.8245
224.000000	74.464478	-143.7590
230.000000	74.499474	-144.1553
236.000000	74.489891	-144.3908
243.000000	74.513107	-144.5218
250.000000	74.466057	-144.6465
258.000000	74.436607	-145.3599
265.000000	74.349869	-145.8922
272.000000	74.258766	-145.9612
280.000000	73.993782	-145.9207
290.000000	73.630646	-143.7388
300.000000	73.315140	-139.2145
307.000000	73.526978	-134.6572
315.000000	74.073624	-130.3790
325.000000	75.264557	-127.3695
335.000000	76.333252	-130.5176
345.000000	76.739151	-134.1396
355.000000	76.870445	-136.8533
365.000000	76.997246	-138.6046
375.000000	77.161369	-140.0048
387.000000	77.298393	-141.6273
400.000000	77.474869	-143.4885
412.000000	77.543854	-145.2061
425.000000	77.632996	-146.8694
437.000000	77.638237	-148.5510
450.000000	77.535774	-149.6258
462.000000	77.466858	-150.3818
475.000000	77.434456	-151.0246
487.000000	77.419968	-151.4331
500.000000	77.411362	-151.6589
515.000000	77.377113	-151.6634
530.000000	77.424431	-151.6759
545.000000	77.475883	-151.9614
560.000000	77.507858	-152.0710
580.000000	77.560143	-151.9328
600.000000	77.674423	-151.8954
615.000000	77.781097	-152.0523
630.000000	77.908340	-152.2732
650.000000	78.051712	-152.8139
670.000000	78.173019	-153.6204
690.000000	78.268700	-154.5751
710.000000	78.316994	-155.5199
730.000000	78.349411	-156.2745
750.000000	78.375114	-157.0162
775.000000	78.408630	-157.8864
800.000000	78.446609	-158.9738
825.000000	78.432159	-160.3797
850.000000	78.319504	-161.9135
875.000000	78.014282	-162.6700
900.000000	77.756256	-161.2928
925.000000	77.844009	-159.7550
950.000000	78.009880	-159.7593
975.000000	78.079788	-160.5621
1000.000000	78.058319	-161.2235
1030.000000	77.988899	-161.7478
1060.000000	77.898773	-161.7129
1090.000000	77.873497	-161.4099
1120.000000	77.889801	-161.3704
1150.000000	77.898956	-161.5352
1180.000000	77.897476	-161.7307
1220.000000	77.898499	-162.2365
1250.000000	77.859535	-162.8925
1280.000000	77.753197	-163.4875
1320.000000	77.570465	-163.8074
1360.000000	77.380692	-163.7153
1400.000000	77.187050	-163.2580
1450.000000	76.976562	-162.0772
1500.000000	76.814415	-160.2137
1550.000000	76.912918	-157.2620
1600.000000	77.486450	-158.5636
1650.000000	77.038208	-161.6610
1700.000000	76.595573	-160.1466
1750.000000	76.461548	-157.9741
1800.000000	76.486664	-156.5290
1850.000000	76.500656	-155.3273
1900.000000	76.584572	-153.7512
1950.000000	76.796783	-152.5049
2000.000000	77.037140	-151.7092
2060.000000	77.338959	-150.9848
2120.000000	77.685799	-150.2311
2180.000000	78.117561	-149.7058
2240.000000	78.588020	-149.7405
2300.000000	79.062492	-150.3483
2360.000000	79.481949	-151.3267
2430.000000	79.942162	-152.6708
2500.000000	80.360085	-154.1786
2580.000000	80.737152	-156.3624
2650.000000	80.981529	-157.6386
2720.000000	81.268242	-158.4717
2800.000000	81.656960	-160.0838
2900.000000	81.893929	-163.3832
3000.000000	81.660385	-164.0272
3070.000000	81.829712	-162.1606
3150.000000	82.275566	-164.0144
3250.000000	81.764137	-155.6357
3350.000000	83.213036	-157.1026
3450.000000	83.749313	-160.0808
3550.000000	84.028870	-162.7571
3650.000000	84.168015	-164.9471
3750.000000	84.198402	-166.9136
3870.000000	84.143738	-168.2626
4000.000000	84.143143	-168.9346
4120.000000	84.239899	-169.1537
4250.000000	84.541565	-170.1116
4370.000000	84.801636	-173.0521
4500.000000	84.756119	-178.0795
4620.000000	84.337196	177.5525
4750.000000	83.582458	173.8651
4870.000000	82.769440	172.3003
5000.000000	81.888031	171.8445
5150.000000	80.931137	173.1002
5300.000000	80.179741	175.3271
5450.000000	79.583405	177.1676
5600.000000	79.003265	177.9484
5800.000000	77.836517	178.3474
6000.000000	76.394905	-179.4031
6150.000000	75.226311	-175.8492
6300.000000	74.210930	-170.4555
6500.000000	73.245453	-162.4200
6700.000000	72.804924	-153.1091
6900.000000	73.089951	-146.4256
7100.000000	73.569496	-143.1473
7300.000000	74.152451	-143.2782
7500.000000	74.436661	-146.3596
7750.000000	74.365715	-150.3711
8000.000000	74.264626	-153.1184
8250.000000	74.520081	-157.8703
8500.000000	74.363037	-168.2220
8750.000000	72.666557	-177.3387
9000.000000	70.655289	-173.4488
9250.000000	70.304138	-164.8730
9500.000000	70.696075	-160.5320
9750.000000	71.531982	-158.7007
10000.000000	72.662613	-161.3655
10300.000000	73.930061	-171.2415
10600.000000	74.210426	171.5264
10900.000000	72.873886	157.2896
11200.000000	71.498871	153.9238
11500.000000	72.250404	153.2905
11800.000000	74.375740	136.7614
12200.000000	73.761772	86.1707
12500.000000	69.907379	60.6136
12800.000000	66.726791	46.4469
13200.000000	64.216461	19.8062
13600.000000	59.367542	-19.2720
14000.000000	52.992512	-29.4407
14500.000000	51.432312	-25.0892
15000.000000	55.992336	-38.2598
15500.000000	59.808334	-88.7740
16000.000000	59.036407	-125.7573
16500.000000	59.074650	-163.0203
17000.000000	58.098999	158.8109
17500.000000	55.815586	122.4099
18000.000000	54.359337	91.7706
18500.000000	53.333675	38.6378
19000.000000	47.414520	-26.8732
19500.000000	37.504196	-37.5464
