* Measurement data measured by REW V5.20 Beta 59
* Source: Headset (USB-C to 3.5mm Headphone Jack Adapter), MICROPHONE (Master Volume), R, volume: 0.258
* Format: 512k Log Swept Sine, 1 sweep with no timing reference
* Dated: Nov 6, 2020 1:03:04 PM
* REW Settings:
*  C-weighting compensation: Off
*  Target level: 75.0 dB
* Note: 
* Measurement: AKG N700NC MK2 BT
* Smoothing: 1/48 octave
* Frequency Step: 1/24 octave
* Start Frequency: 20.600 Hz
*
* Freq(Hz)	SPL(dB)	Phase(degrees)
20.600000	89.838242	-172.7638
21.200001	89.796455	-175.3593
21.799999	89.755287	-177.4135
22.400000	89.663940	-179.8600
23.000000	89.638908	177.7642
23.600000	89.584167	176.3543
24.299999	89.405487	174.2540
25.000000	89.329483	171.5010
25.799999	89.208206	169.4977
26.500000	89.053658	167.8690
27.200001	88.972252	166.3282
28.000000	88.820534	164.6691
29.000000	88.661194	161.8091
30.000000	88.591309	159.7382
30.700001	88.495560	158.2676
31.500000	88.389709	156.5597
32.500000	88.290382	154.3401
33.500000	88.211929	152.8156
34.500000	88.116928	150.9153
35.500000	88.018951	149.2006
36.500000	87.936783	147.5005
37.500000	87.841202	145.6683
38.700001	87.702950	144.1189
40.000000	87.607780	141.9702
41.200001	87.568344	140.4723
42.500000	87.457291	139.2296
43.700001	87.406067	137.3353
45.000000	87.367966	135.7222
46.200001	87.353477	134.1847
47.500000	87.334946	132.1093
48.700001	87.233574	131.0042
50.000000	87.259148	129.4434
51.500000	87.093010	127.3131
53.000000	86.982521	125.8900
54.500000	86.851143	124.7864
56.000000	86.726105	123.0903
58.000000	86.640167	121.1974
60.000000	86.612144	119.1567
61.500000	86.515564	117.8681
63.000000	86.416260	116.2762
65.000000	86.331009	115.2664
67.000000	86.125427	114.0436
69.000000	85.890495	112.3596
71.000000	85.802643	111.5799
73.000000	85.691322	110.1893
75.000000	85.528992	109.5633
77.500000	85.354576	107.9431
80.000000	85.319092	107.0886
82.500000	85.169624	106.4230
85.000000	84.974556	105.3312
87.500000	85.020439	104.7094
90.000000	84.829369	102.9632
92.500000	84.851959	103.6049
95.000000	84.718079	101.8899
97.500000	84.665878	101.8692
100.000000	84.523872	101.6418
103.000000	84.380623	100.6752
106.000000	84.376312	99.3572
109.000000	84.261971	99.0449
112.000000	84.288406	97.9041
115.000000	84.192039	97.0547
118.000000	84.089981	96.4044
122.000000	84.014648	94.4015
125.000000	83.884277	93.2014
128.000000	83.587502	91.6199
132.000000	83.148468	90.3911
136.000000	82.682495	90.9277
140.000000	82.359192	91.1036
145.000000	81.847977	93.1677
150.000000	81.590637	94.6148
155.000000	81.361572	96.6535
160.000000	81.081451	99.3094
165.000000	80.905464	101.5342
170.000000	80.743744	103.4225
175.000000	80.732086	106.2802
180.000000	80.480331	108.6388
185.000000	80.518829	112.0182
190.000000	80.587486	114.5751
195.000000	80.635208	117.3909
200.000000	80.831970	119.4023
206.000000	80.902084	122.3618
212.000000	80.945740	125.3442
218.000000	81.196754	127.7418
224.000000	81.473061	129.8653
230.000000	81.632217	131.8214
236.000000	81.803680	134.7104
243.000000	82.052666	135.7405
250.000000	82.311111	137.1668
258.000000	82.261658	139.1548
265.000000	82.235413	141.9208
272.000000	82.237228	144.2526
280.000000	82.354233	146.7654
290.000000	82.310577	150.3934
300.000000	82.386368	154.6001
307.000000	82.445358	156.8595
315.000000	82.480263	160.0957
325.000000	82.467407	163.7472
335.000000	82.457451	168.6208
345.000000	82.463234	172.9853
355.000000	82.534531	177.2668
365.000000	82.518700	-177.9704
375.000000	82.432899	-173.4034
387.000000	82.325027	-167.8176
400.000000	82.298569	-161.6039
412.000000	82.101227	-155.0449
425.000000	81.873428	-147.7996
437.000000	81.680992	-140.4586
450.000000	81.468643	-132.2424
462.000000	81.197586	-123.5045
475.000000	81.049553	-114.3503
487.000000	80.905167	-105.0878
500.000000	80.822594	-95.0331
515.000000	80.857979	-83.5269
530.000000	80.812920	-71.6702
545.000000	80.841652	-59.6277
560.000000	80.923019	-47.7007
580.000000	81.026100	-31.8317
600.000000	81.112709	-15.9383
615.000000	81.193420	-3.5343
630.000000	81.252350	8.5978
650.000000	81.344490	25.2663
670.000000	81.442635	41.8295
690.000000	81.512024	58.8755
710.000000	81.616005	75.9170
730.000000	81.670364	92.7825
750.000000	81.694397	109.9780
775.000000	81.670349	131.8743
800.000000	81.598091	154.3130
825.000000	81.525932	177.0453
850.000000	81.344833	-159.5153
875.000000	81.199127	-135.2389
900.000000	81.047112	-110.2947
925.000000	80.944603	-84.8735
950.000000	80.777176	-58.5999
975.000000	80.706787	-32.0767
1000.000000	80.665298	-4.9172
1030.000000	80.704178	27.9863
1060.000000	80.703110	61.2969
1090.000000	80.739632	94.8671
1120.000000	80.799385	129.6053
1150.000000	80.959564	165.3617
1180.000000	81.404190	-158.9673
1220.000000	82.109100	-113.8669
1250.000000	82.398582	-80.7986
1280.000000	82.607658	-46.9215
1320.000000	82.787674	-0.6595
1360.000000	83.062889	46.3007
1400.000000	83.375000	93.5201
1450.000000	83.714691	152.7131
1500.000000	84.000137	-148.2520
1550.000000	84.062714	-88.1147
1600.000000	83.997818	-27.2454
1650.000000	83.830154	35.0719
1700.000000	83.701286	98.7675
1750.000000	83.646362	163.5072
1800.000000	83.485191	-130.4998
1850.000000	83.375412	-63.1995
1900.000000	83.456200	5.4120
1950.000000	83.839729	73.6868
2000.000000	84.175514	141.9396
2060.000000	84.427246	-135.3680
2120.000000	84.698441	-51.4546
2180.000000	85.181877	33.4390
2240.000000	85.769455	119.4946
2300.000000	86.465218	-155.9502
2360.000000	86.901039	-71.4800
2430.000000	87.352768	29.3796
2500.000000	87.782501	131.4385
2580.000000	88.474846	-111.0581
2650.000000	88.951103	-7.6108
2720.000000	89.513634	96.9282
2800.000000	90.160614	-142.9238
2900.000000	90.950356	7.7739
3000.000000	91.702530	114.8977
3070.000000	91.921646	145.8049
3150.000000	92.218216	-178.9871
3250.000000	92.446381	-134.6191
3350.000000	92.508804	-90.5088
3450.000000	92.494034	-46.8093
3550.000000	92.570251	-3.3599
3650.000000	92.713776	38.8464
3750.000000	92.871582	79.2949
3870.000000	92.983337	124.7468
4000.000000	92.779167	171.3306
4120.000000	92.191315	-147.5796
4250.000000	91.227585	-103.5435
4370.000000	90.019775	-61.9197
4500.000000	88.642998	-13.1104
4620.000000	88.309372	34.0439
4750.000000	88.802124	77.5437
4870.000000	88.881042	112.4353
5000.000000	88.492142	148.1047
5150.000000	87.837662	-171.4976
5300.000000	87.074036	-131.2080
5450.000000	86.509766	-92.2920
5600.000000	85.936607	-55.1877
5800.000000	85.343170	-9.1074
6000.000000	84.705070	34.9502
6150.000000	84.567322	67.0273
6300.000000	84.960098	96.5947
6500.000000	86.212852	128.0010
6700.000000	87.400482	146.0894
6900.000000	87.171860	155.5049
7100.000000	85.636116	167.4834
7300.000000	84.262451	-176.4883
7500.000000	83.344391	-161.0415
7750.000000	82.747871	-143.5288
8000.000000	83.120422	-129.7939
8250.000000	84.627060	-129.0488
8500.000000	84.870018	-145.8594
8750.000000	83.078819	-160.5288
9000.000000	81.468109	-172.9536
9250.000000	79.850334	170.1699
9500.000000	77.567215	150.1768
9750.000000	74.525139	129.1216
10000.000000	70.019157	113.5908
10300.000000	65.357315	130.3096
10600.000000	69.509399	135.6802
10900.000000	73.438599	99.5850
11200.000000	75.023880	50.7520
11500.000000	76.950745	2.5444
11800.000000	80.027344	-65.1460
12200.000000	79.002884	175.9456
12500.000000	75.796196	99.4219
12800.000000	73.168747	27.5415
13200.000000	71.097366	-76.7456
13600.000000	69.459732	155.5874
14000.000000	67.928345	-1.0784
14500.000000	67.372314	139.3191
15000.000000	66.438698	-59.0186
15500.000000	66.005569	120.2056
16000.000000	68.391777	-57.6147
16500.000000	73.016914	71.3655
17000.000000	65.722870	-171.0269
17500.000000	59.460213	-1.1610
18000.000000	60.608833	163.2362
18500.000000	63.322979	-82.7831
19000.000000	64.186302	5.1116
19500.000000	64.764008	68.7091
