* Measurement data measured by REW V5.20 Beta 59
* Source: Headset (USB-C to 3.5mm Headphone Jack Adapter), MICROPHONE, R, volume: no control
* Format: 256k Log Swept Sine, 1 sweep at -6.0 dBFS with no timing reference
* Dated: Nov 7, 2020 4:23:00 PM
* REW Settings:
*  C-weighting compensation: Off
*  Target level: 73.3 dB
* Note: ; 
* Measurement: Koss PortaPro Yaxi
* Smoothing: 1/48 octave
* Frequency Step: 1/24 octave
* Start Frequency: 20.600 Hz
*
* Freq(Hz)	SPL(dB)	Phase(degrees)
20.600000	72.093452	133.2219
21.200001	72.414024	131.1244
21.799999	72.678085	129.5612
22.400000	73.007156	128.6335
23.000000	73.423492	127.5582
23.600000	73.807449	125.9610
24.299999	74.130104	124.1492
25.000000	74.433449	122.7740
25.799999	74.812431	120.9054
26.500000	75.073425	119.2337
27.200001	75.307922	118.1874
28.000000	75.608429	116.9553
29.000000	75.851776	114.2500
30.000000	75.997185	111.5491
30.700001	76.205185	110.1236
31.500000	76.524849	108.8314
32.500000	76.911057	107.0738
33.500000	77.190346	104.9087
34.500000	77.454117	102.8864
35.500000	77.737946	101.0922
36.500000	77.963989	99.2705
37.500000	78.172089	97.6172
38.700001	78.477638	95.6997
40.000000	78.681236	93.7328
41.200001	78.968597	91.5003
42.500000	79.297249	88.9629
43.700001	79.561218	87.2707
45.000000	79.764420	84.9615
46.200001	79.972244	83.3339
47.500000	80.187431	81.6916
48.700001	80.409164	79.8086
50.000000	80.694641	77.4895
51.500000	80.854568	75.9511
53.000000	81.032639	73.4480
54.500000	81.176193	71.2020
56.000000	81.277451	69.4511
58.000000	81.497627	66.8882
60.000000	81.666130	64.8776
61.500000	81.792908	63.2050
63.000000	81.943459	61.4552
65.000000	82.066315	59.5740
67.000000	82.196556	57.3436
69.000000	82.301994	55.3607
71.000000	82.365952	53.6427
73.000000	82.520111	51.9115
75.000000	82.636566	49.9371
77.500000	82.730042	47.3820
80.000000	82.813622	45.0523
82.500000	82.859337	42.5124
85.000000	82.846107	40.2490
87.500000	82.812050	38.0511
90.000000	82.714043	35.6551
92.500000	82.566612	35.5531
95.000000	82.547974	34.8161
97.500000	82.622902	34.2645
100.000000	82.735748	33.2422
103.000000	82.866920	31.3580
106.000000	82.952332	29.2710
109.000000	82.970535	27.0632
112.000000	82.913368	24.8097
115.000000	82.740814	23.0785
118.000000	82.570404	22.7937
122.000000	82.628067	22.3267
125.000000	82.675369	21.2647
128.000000	82.689568	20.1785
132.000000	82.676208	18.7570
136.000000	82.668213	17.4143
140.000000	82.642601	16.0443
145.000000	82.595238	14.5018
150.000000	82.545555	13.0277
155.000000	82.484261	11.6950
160.000000	82.413605	10.3963
165.000000	82.325378	9.2446
170.000000	82.236908	8.1955
175.000000	82.181938	7.0671
180.000000	82.063309	6.3223
185.000000	81.967789	5.5173
190.000000	81.893860	4.9661
195.000000	81.846466	4.3242
200.000000	81.792084	3.4959
206.000000	81.699417	2.6235
212.000000	81.629768	1.4102
218.000000	81.423965	0.1750
224.000000	81.161682	-0.1519
230.000000	80.978546	0.2681
236.000000	80.927834	0.7313
243.000000	80.902298	0.6158
250.000000	80.834892	0.3890
258.000000	80.766647	0.1568
265.000000	80.715828	-0.0713
272.000000	80.650444	-0.3668
280.000000	80.586960	-0.6463
290.000000	80.484589	-1.0448
300.000000	80.394905	-1.3768
307.000000	80.313248	-1.7091
315.000000	80.209778	-1.9040
325.000000	80.067932	-2.2820
335.000000	79.893829	-2.2691
345.000000	79.747314	-1.7013
355.000000	79.693817	-1.1776
365.000000	79.660233	-1.0388
375.000000	79.578354	-1.0489
387.000000	79.510857	-0.6484
400.000000	79.523514	-0.8686
412.000000	79.282547	-2.9984
425.000000	78.888054	0.1534
437.000000	78.955757	1.0695
450.000000	78.942657	1.5699
462.000000	78.911942	1.9664
475.000000	78.873474	2.3424
487.000000	78.832657	2.7225
500.000000	78.792778	3.0726
515.000000	78.727081	3.3824
530.000000	78.644020	3.8357
545.000000	78.563202	4.2262
560.000000	78.407005	4.9814
580.000000	78.353004	6.4781
600.000000	78.330093	7.5870
615.000000	78.309822	8.3412
630.000000	78.287300	9.0272
650.000000	78.236145	10.1607
670.000000	78.230484	11.3456
690.000000	78.246185	12.3954
710.000000	78.266167	13.3483
730.000000	78.284691	14.1899
750.000000	78.305008	14.9540
775.000000	78.294647	16.0947
800.000000	78.332520	17.2432
825.000000	78.368195	18.2567
850.000000	78.405228	19.2499
875.000000	78.444534	20.2283
900.000000	78.468224	21.1957
925.000000	78.517021	22.1651
950.000000	78.553787	23.1301
975.000000	78.597061	24.2103
1000.000000	78.682266	25.2116
1030.000000	78.766495	26.1772
1060.000000	78.834084	27.3250
1090.000000	78.921745	28.4281
1120.000000	78.986534	29.5247
1150.000000	79.084976	30.7868
1180.000000	79.201836	31.9247
1220.000000	79.372292	33.4783
1250.000000	79.525459	34.6129
1280.000000	79.681137	35.5934
1320.000000	79.923409	36.9109
1360.000000	80.201401	38.1521
1400.000000	80.525688	38.9147
1450.000000	80.892426	39.3274
1500.000000	81.271439	39.8533
1550.000000	81.582420	39.0293
1600.000000	81.724396	39.4160
1650.000000	82.133804	39.7215
1700.000000	82.393997	38.8981
1750.000000	82.891357	39.1112
1800.000000	83.214989	37.0152
1850.000000	83.624237	36.2866
1900.000000	84.002243	34.1793
1950.000000	84.376305	31.3281
2000.000000	84.667496	29.9137
2060.000000	85.175491	25.4014
2120.000000	85.368179	22.9750
2180.000000	85.741585	18.2244
2240.000000	85.892838	15.4718
2300.000000	86.093452	10.8958
2360.000000	86.101929	8.0301
2430.000000	86.117355	4.6590
2500.000000	86.135460	1.0712
2580.000000	86.153252	-1.8686
2650.000000	86.178047	-3.2251
2720.000000	86.210831	-6.2983
2800.000000	86.298843	-8.4756
2900.000000	86.353798	-12.2286
3000.000000	86.263802	-17.1448
3070.000000	85.993622	-19.2546
3150.000000	85.687286	-21.1489
3250.000000	85.586029	-22.3123
3350.000000	85.367508	-25.0104
3450.000000	85.145554	-28.5813
3550.000000	84.645935	-33.0173
3650.000000	84.371788	-38.3374
3750.000000	83.360237	-45.5763
3870.000000	83.021111	-53.3334
4000.000000	81.048340	-87.0022
4120.000000	75.333084	-128.3666
4250.000000	72.357224	159.7496
4370.000000	75.679596	111.0400
4500.000000	78.133865	89.8968
4620.000000	78.881081	86.5073
4750.000000	81.145897	96.0930
4870.000000	84.557480	95.7635
5000.000000	87.884636	85.2804
5150.000000	90.432388	62.4317
5300.000000	90.652191	35.6803
5450.000000	89.157715	17.0780
5600.000000	87.343704	6.1616
5800.000000	84.857040	-3.8560
6000.000000	81.538193	-8.8992
6150.000000	78.793694	-3.0591
6300.000000	77.238403	9.5607
6500.000000	76.770500	20.9395
6700.000000	76.521767	27.5824
6900.000000	76.553383	36.0588
7100.000000	77.788185	38.6083
7300.000000	78.234146	31.7256
7500.000000	77.774071	29.1750
7750.000000	78.192513	29.2629
8000.000000	79.292030	21.1335
8250.000000	79.141434	5.4940
8500.000000	78.300247	-4.9713
8750.000000	77.610344	-15.9038
9000.000000	76.872330	-25.7881
9250.000000	76.135956	-39.9540
9500.000000	74.882904	-57.2714
9750.000000	72.345825	-72.5416
10000.000000	71.042603	-87.6328
10300.000000	67.807495	-116.8239
10600.000000	65.048271	-152.9611
10900.000000	64.127312	161.5645
11200.000000	66.125519	121.1933
11500.000000	68.986557	89.1452
11800.000000	70.828484	58.1715
12200.000000	71.465057	24.4575
12500.000000	71.745514	3.0472
12800.000000	71.461716	-21.6969
13200.000000	68.908913	-60.8070
13600.000000	62.197899	-89.5991
14000.000000	52.255028	-4.2856
14500.000000	64.275391	3.7803
15000.000000	66.996185	-38.3650
15500.000000	67.554749	-73.4471
16000.000000	68.949158	-114.4625
16500.000000	70.094109	-178.0188
17000.000000	65.614426	112.1663
17500.000000	58.202881	84.3384
18000.000000	62.146084	77.2437
18500.000000	63.296268	-1.4749
19000.000000	62.087822	-74.5643
19500.000000	60.971348	-172.0038
