Freq(Hz)	SPL(dB)
20.000000	86.900
20.299999	86.992
20.600000	87.060
20.900000	87.113
21.200001	87.165
21.400000	87.208
21.799999	87.317
22.000000	87.379
22.400000	87.500
22.700001	87.569
23.000000	87.607
23.299999	87.619
23.600000	87.618
24.000000	87.627
24.299999	87.655
24.700001	87.719
25.000000	87.773
25.400000	87.831
25.799999	87.865
26.200001	87.886
26.500000	87.907
26.900000	87.952
27.200001	88.000
27.600000	88.079
28.000000	88.160
28.500000	88.248
29.000000	88.310
29.500000	88.348
30.000000	88.380
30.400000	88.414
30.700001	88.444
31.100000	88.484
31.500000	88.514
32.000000	88.529
32.500000	88.530
33.000000	88.536
33.500000	88.556
34.000000	88.582
34.500000	88.605
35.000000	88.622
35.500000	88.637
36.000000	88.655
36.500000	88.673
37.000000	88.693
37.500000	88.719
38.200001	88.759
38.700001	88.773
39.500000	88.748
40.000000	88.720
40.599998	88.706
41.200001	88.710
41.799999	88.716
42.500000	88.721
43.099998	88.730
43.700001	88.737
44.400002	88.742
45.000000	88.750
45.500000	88.755
46.200001	88.740
46.799999	88.715
47.500000	88.705
48.200001	88.704
48.700001	88.685
49.400002	88.635
50.000000	88.607
50.799999	88.604
51.500000	88.587
52.200001	88.541
53.000000	88.509
53.799999	88.494
54.500000	88.458
55.200001	88.420
56.000000	88.388
57.000000	88.331
58.000000	88.290
59.000000	88.237
60.000000	88.161
60.799999	88.107
61.500000	88.048
62.200001	88.010
63.000000	88.001
64.000000	87.924
65.000000	87.823
66.000000	87.808
67.000000	87.754
68.000000	87.703
69.000000	87.688
70.000000	87.635
71.000000	87.604
72.000000	87.580
73.000000	87.512
74.000000	87.487
75.000000	87.486
76.199997	87.449
77.500000	87.427
78.800003	87.403
80.000000	87.355
81.199997	87.329
82.500000	87.330
83.800003	87.266
85.000000	87.208
86.199997	87.200
87.500000	87.157
88.500000	87.116
90.000000	87.099
91.199997	87.088
92.500000	87.034
93.800003	86.986
95.000000	86.952
96.199997	86.926
97.500000	86.880
98.800003	86.825
100.000000	86.787
101.500000	86.760
103.000000	86.738
104.400002	86.692
106.000000	86.636
107.500000	86.588
109.000000	86.551
110.599998	86.519
112.000000	86.482
113.800003	86.432
115.000000	86.395
117.199997	86.328
118.000000	86.305
120.599998	86.233
122.000000	86.196
124.099998	86.141
125.000000	86.121
126.500000	86.081
128.000000	86.041
131.500000	85.962
132.000000	85.947
134.000000	85.896
136.000000	85.860
138.000000	85.822
140.000000	85.776
143.000000	85.709
145.000000	85.665
147.500000	85.613
150.000000	85.563
152.500000	85.510
155.000000	85.468
157.500000	85.434
160.000000	85.385
162.500000	85.336
165.000000	85.294
167.500000	85.261
170.000000	85.226
172.500000	85.183
175.000000	85.140
177.500000	85.102
180.000000	85.066
182.500000	85.027
185.000000	84.982
187.500000	84.944
190.000000	84.911
192.500000	84.870
195.000000	84.829
197.500000	84.788
200.000000	84.744
203.000000	84.689
206.000000	84.636
209.000000	84.582
212.000000	84.521
214.000000	84.475
218.000000	84.398
220.000000	84.362
224.000000	84.290
227.000000	84.242
230.000000	84.189
233.000000	84.134
236.000000	84.086
240.000000	84.020
243.000000	83.965
247.000000	83.891
250.000000	83.839
254.000000	83.803
258.000000	83.799
262.000000	83.779
265.000000	83.763
269.000000	83.737
272.000000	83.704
276.000000	83.671
280.000000	83.643
285.000000	83.609
290.000000	83.573
295.000000	83.538
300.000000	83.510
304.000000	83.487
307.000000	83.473
311.000000	83.463
315.000000	83.450
320.000000	83.428
325.000000	83.404
330.000000	83.381
335.000000	83.351
340.000000	83.316
345.000000	83.290
350.000000	83.271
355.000000	83.263
360.000000	83.271
365.000000	83.287
370.000000	83.326
375.000000	83.382
382.000000	83.482
387.000000	83.561
395.000000	83.672
400.000000	83.713
406.000000	83.758
412.000000	83.865
418.000000	83.976
425.000000	84.056
431.000000	84.081
437.000000	84.075
444.000000	84.064
450.000000	84.060
455.000000	84.053
462.000000	84.036
468.000000	84.018
475.000000	83.991
482.000000	83.956
487.000000	83.922
494.000000	83.860
500.000000	83.792
508.000000	83.685
515.000000	83.579
522.000000	83.464
530.000000	83.330
538.000000	83.195
545.000000	83.084
552.000000	82.974
560.000000	82.844
570.000000	82.661
580.000000	82.452
590.000000	82.230
600.000000	82.011
608.000000	81.843
615.000000	81.696
622.000000	81.553
630.000000	81.416
640.000000	81.278
650.000000	81.163
660.000000	81.088
670.000000	81.049
680.000000	81.040
690.000000	81.067
700.000000	81.122
710.000000	81.207
720.000000	81.312
730.000000	81.441
740.000000	81.597
750.000000	81.757
762.000000	81.969
775.000000	82.215
788.000000	82.452
800.000000	82.658
812.000000	82.842
825.000000	83.014
838.000000	83.170
850.000000	83.301
862.000000	83.420
875.000000	83.543
885.000000	83.637
900.000000	83.775
912.000000	83.872
925.000000	83.960
938.000000	84.031
950.000000	84.083
962.000000	84.122
975.000000	84.123
988.000000	84.082
1000.000000	84.039
1015.000000	84.084
1030.000000	84.151
1044.000000	84.166
1060.000000	84.168
1075.000000	84.175
1090.000000	84.186
1106.000000	84.207
1120.000000	84.224
1138.000000	84.243
1150.000000	84.254
1172.000000	84.277
1180.000000	84.288
1206.000000	84.325
1220.000000	84.346
1241.000000	84.389
1250.000000	84.412
1265.000000	84.452
1280.000000	84.496
1315.000000	84.617
1320.000000	84.636
1340.000000	84.710
1360.000000	84.784
1380.000000	84.868
1400.000000	84.957
1430.000000	85.104
1450.000000	85.206
1475.000000	85.339
1500.000000	85.470
1525.000000	85.599
1550.000000	85.732
1575.000000	85.865
1600.000000	86.000
1625.000000	86.138
1650.000000	86.280
1675.000000	86.427
1700.000000	86.576
1725.000000	86.718
1750.000000	86.654
1775.000000	86.897
1800.000000	87.148
1825.000000	87.316
1850.000000	87.482
1875.000000	87.652
1900.000000	87.827
1925.000000	88.002
1950.000000	88.163
1975.000000	88.297
2000.000000	88.404
2030.000000	88.520
2060.000000	88.644
2090.000000	88.787
2120.000000	88.948
2140.000000	89.059
2180.000000	89.264
2200.000000	89.355
2240.000000	89.525
2270.000000	89.650
2300.000000	89.775
2330.000000	89.899
2360.000000	90.023
2400.000000	90.191
2430.000000	90.320
2470.000000	90.507
2500.000000	90.646
2540.000000	90.809
2580.000000	90.917
2620.000000	90.940
2650.000000	90.885
2690.000000	90.698
2720.000000	90.473
2760.000000	90.091
2800.000000	89.659
2850.000000	89.091
2900.000000	88.579
2950.000000	88.510
3000.000000	88.599
3040.000000	88.409
3070.000000	88.467
3110.000000	88.765
3150.000000	89.141
3200.000000	89.600
3250.000000	89.728
3300.000000	89.468
3350.000000	89.137
3400.000000	88.760
3450.000000	88.294
3500.000000	87.844
3550.000000	87.662
3600.000000	87.484
3650.000000	87.354
3700.000000	87.295
3750.000000	87.242
3820.000000	87.202
3870.000000	87.192
3950.000000	87.167
4000.000000	87.167
4060.000000	87.193
4120.000000	87.258
4180.000000	87.355
4250.000000	87.458
4310.000000	87.460
4370.000000	87.410
4440.000000	87.500
4500.000000	87.667
4550.000000	87.819
4620.000000	88.021
4680.000000	88.174
4750.000000	88.314
4820.000000	88.385
4870.000000	88.412
4940.000000	88.438
5000.000000	88.446
5080.000000	88.442
5150.000000	88.436
5220.000000	88.454
5300.000000	88.546
5380.000000	88.741
5450.000000	88.964
5520.000000	89.171
5600.000000	89.339
5700.000000	89.417
5800.000000	89.365
5900.000000	89.179
6000.000000	88.843
6080.000000	88.458
6150.000000	88.051
6220.000000	87.609
6300.000000	87.075
6400.000000	86.388
6500.000000	85.724
6600.000000	85.090
6700.000000	84.455
6800.000000	83.766
6900.000000	83.151
7000.000000	82.813
7100.000000	82.649
7200.000000	82.397
7300.000000	82.051
7400.000000	81.860
7500.000000	82.180
7620.000000	83.150
7750.000000	84.096
7880.000000	84.302
8000.000000	83.060
8120.000000	79.425
8250.000000	75.173
8380.000000	79.581
8500.000000	83.284
8620.000000	85.084
8750.000000	85.784
8850.000000	85.909
9000.000000	85.909
9120.000000	85.865
9250.000000	85.761
9380.000000	85.702
9500.000000	85.823
9620.000000	86.146
9750.000000	86.583
9880.000000	86.781
10000.000000	86.486
10150.000000	85.438
10300.000000	84.053
10440.000000	82.915
10600.000000	82.074
10750.000000	81.790
10900.000000	81.969
11060.000000	82.718
11200.000000	83.784
11380.000000	85.370
11500.000000	86.276
11720.000000	86.640
11800.000000	86.267
12060.000000	84.232
12200.000000	83.220
12410.000000	81.965
12500.000000	81.416
12650.000000	80.345
12800.000000	79.121
13150.000000	76.770
13200.000000	76.574
13400.000000	76.187
13600.000000	76.437
13800.000000	77.287
14000.000000	78.359
14300.000000	79.290
14500.000000	78.932
14750.000000	77.277
15000.000000	74.794
15250.000000	72.356
15500.000000	70.961
15750.000000	70.810
16000.000000	71.396
16250.000000	71.703
16500.000000	70.804
16750.000000	69.370
17000.000000	67.985
17250.000000	66.100
17500.000000	63.659
17750.000000	61.909
18000.000000	63.080
18250.000000	65.728
18500.000000	67.180
18750.000000	67.469
19000.000000	67.354
19250.000000	66.935
19500.000000	66.861
19750.000000	66.815

