* Measurement data measured by REW V5.20
* Source: Headset (USB-C to 3.5mm Headphone Jack Adapter), MICROPHONE (Master Volume), R, volume: 0.260
* Format: 512k Log Swept Sine, 1 sweep at 0.0 dBFS with no timing reference
* Dated: Apr 7, 2022 2:50:45 PM
* REW Settings:
*  C-weighting compensation: Off
*  Target level: 75.0 dB
* Note: ; 
* Measurement: TX-901 R
* Smoothing: 1/48 octave
* Frequency Step: 1/24 octave
* Start Frequency: 20.600 Hz
*
* Freq(Hz)	SPL(dB)	Phase(degrees)
20.600000	66.108307	-94.2308
21.200001	65.990814	-101.4798
21.799999	66.525024	-100.8443
22.400000	66.494469	-100.0160
23.000000	66.980263	-108.4857
23.600000	67.903900	-112.5680
24.299999	67.187157	-110.3619
25.000000	66.123085	-113.9644
25.799999	66.883347	-116.7973
26.500000	66.873001	-116.0416
27.200001	66.559494	-117.9174
28.000000	66.888306	-120.6742
29.000000	67.092636	-122.5119
30.000000	66.810043	-124.2148
30.700001	66.787247	-121.9255
31.500000	66.335060	-124.2954
32.500000	66.859352	-131.3187
33.500000	66.699409	-130.6455
34.500000	67.260277	-132.4043
35.500000	67.058830	-133.8723
36.500000	66.988510	-134.8472
37.500000	67.263695	-134.5692
38.700001	67.175697	-137.6316
40.000000	67.106491	-139.1663
41.200001	66.946213	-138.5364
42.500000	67.316689	-140.5317
43.700001	67.084373	-142.6849
45.000000	67.005867	-143.6648
46.200001	66.787338	-143.8298
47.500000	66.946037	-144.6901
48.700001	67.340637	-144.7285
50.000000	67.250977	-145.4325
51.500000	67.145943	-148.3631
53.000000	67.325356	-150.2276
54.500000	66.876678	-148.2051
56.000000	67.307556	-148.7225
58.000000	67.248703	-151.7046
60.000000	67.316147	-150.2118
61.500000	67.320038	-151.9013
63.000000	67.469864	-153.1307
65.000000	67.260857	-153.4108
67.000000	67.350975	-153.6963
69.000000	67.343468	-155.6026
71.000000	67.305092	-156.1297
73.000000	67.207230	-155.4080
75.000000	67.068634	-154.9998
77.500000	67.116707	-157.2387
80.000000	67.272354	-157.1920
82.500000	67.246498	-158.0604
85.000000	67.201309	-158.3036
87.500000	67.235893	-158.8158
90.000000	67.227844	-158.8243
92.500000	67.303604	-159.4232
95.000000	67.278000	-159.7176
97.500000	67.301804	-160.4944
100.000000	67.290863	-160.5849
103.000000	67.267052	-161.2098
106.000000	67.279610	-161.1994
109.000000	67.328766	-161.4109
112.000000	67.299309	-161.6328
115.000000	67.296486	-161.8347
118.000000	67.288589	-162.1196
122.000000	67.335228	-162.1513
125.000000	67.321968	-162.2701
128.000000	67.335403	-162.4166
132.000000	67.392670	-162.4996
136.000000	67.399040	-162.3571
140.000000	67.455284	-162.4066
145.000000	67.537216	-162.7323
150.000000	67.634888	-162.7475
155.000000	67.672966	-163.2145
160.000000	67.789001	-163.5140
165.000000	67.825485	-163.7643
170.000000	67.876617	-164.1119
175.000000	67.970955	-164.2343
180.000000	67.980751	-164.7979
185.000000	68.088737	-164.8543
190.000000	68.216660	-165.4136
195.000000	68.298737	-165.7964
200.000000	68.430420	-166.4304
206.000000	68.614883	-167.5865
212.000000	68.769119	-169.5593
218.000000	68.901741	-172.3022
224.000000	68.850174	-175.9493
230.000000	68.479591	179.6640
236.000000	67.702461	176.9524
243.000000	66.664444	178.5215
250.000000	66.177116	-176.9652
258.000000	66.135338	-173.0732
265.000000	66.128998	-171.1558
272.000000	66.070496	-169.6538
280.000000	66.003365	-167.2644
290.000000	66.128105	-163.8891
300.000000	66.477516	-161.7544
307.000000	66.688423	-160.6872
315.000000	66.882401	-160.0057
325.000000	67.204971	-159.3466
335.000000	67.490921	-159.1017
345.000000	67.711807	-159.4238
355.000000	67.888107	-159.5329
365.000000	68.097595	-159.3461
375.000000	68.342896	-159.7561
387.000000	68.655937	-160.5409
400.000000	68.992729	-162.1613
412.000000	69.340332	-165.6257
425.000000	69.043701	-172.8953
437.000000	67.598297	-173.2155
450.000000	67.303741	-164.9065
462.000000	67.774704	-161.5604
475.000000	68.291466	-159.8553
487.000000	68.874260	-159.9023
500.000000	69.501137	-161.6449
515.000000	70.160927	-167.2368
530.000000	70.063652	-177.3744
545.000000	68.483643	171.7665
560.000000	65.275574	-177.7712
580.000000	66.209488	-158.1755
600.000000	67.546677	-154.6945
615.000000	68.315475	-155.0871
630.000000	68.667847	-158.4336
650.000000	68.296333	-156.5027
670.000000	68.990128	-153.2360
690.000000	69.828964	-154.3673
710.000000	70.265625	-156.1405
730.000000	70.826645	-157.8165
750.000000	71.121155	-158.5063
775.000000	72.605118	-161.7579
800.000000	74.738708	-173.3290
825.000000	75.224617	144.1614
850.000000	66.555580	118.5020
875.000000	60.871490	172.8862
900.000000	64.220078	-157.1954
925.000000	65.668831	-158.9365
950.000000	66.625137	-153.8384
975.000000	67.786377	-154.5149
1000.000000	68.312653	-157.2502
1030.000000	68.423805	-162.7424
1060.000000	68.480934	-159.7602
1090.000000	68.526367	-164.5927
1120.000000	67.446945	-163.4361
1150.000000	68.232780	-155.6642
1180.000000	68.864273	-157.2911
1220.000000	68.921524	-160.9692
1250.000000	68.798424	-160.1418
1280.000000	69.068100	-160.1942
1320.000000	69.058105	-163.3592
1360.000000	69.006973	-161.6461
1400.000000	68.456787	-168.0810
1450.000000	68.352348	-156.3922
1500.000000	69.343216	-154.2747
1550.000000	70.019394	-158.3337
1600.000000	70.182510	-163.7740
1650.000000	70.339615	-166.6641
1700.000000	69.137001	-176.2243
1750.000000	68.412010	-168.1701
1800.000000	68.595657	-166.0910
1850.000000	68.476288	-166.8901
1900.000000	67.198669	-166.5009
1950.000000	66.551979	-142.7773
2000.000000	73.919785	-142.0147
2060.000000	72.739723	-169.9107
2120.000000	71.771004	-177.4322
2180.000000	71.700508	-179.1660
2240.000000	71.237434	174.5372
2300.000000	70.640717	169.9833
2360.000000	70.185669	171.6555
2430.000000	69.969749	169.7886
2500.000000	69.941383	170.4346
2580.000000	69.329819	165.3159
2650.000000	69.110245	167.3535
2720.000000	68.518280	169.7759
2800.000000	68.412827	167.9506
2900.000000	68.028862	166.5079
3000.000000	67.532013	175.3127
3070.000000	67.065186	178.8776
3150.000000	67.296165	-176.9702
3250.000000	68.175766	-173.3236
3350.000000	67.705261	-174.8254
3450.000000	67.171181	-172.1046
3550.000000	67.066383	-166.0441
3650.000000	67.454247	-157.2754
3750.000000	67.849670	-151.7803
3870.000000	67.883194	-149.8005
4000.000000	68.237923	-143.5301
4120.000000	68.702698	-138.4863
4250.000000	69.497780	-131.2418
4370.000000	70.685120	-128.5049
4500.000000	72.136475	-127.1273
4620.000000	73.391068	-131.6523
4750.000000	74.117874	-139.2099
4870.000000	74.259399	-147.1026
5000.000000	73.730682	-155.4036
5150.000000	72.650414	-160.8714
5300.000000	71.602959	-164.2714
5450.000000	70.258255	-167.6171
5600.000000	68.331551	-168.3348
5800.000000	65.702354	-160.5164
6000.000000	63.801723	-145.2930
6150.000000	63.121559	-130.2629
6300.000000	63.679398	-115.5919
6500.000000	65.857819	-104.5177
6700.000000	67.725594	-108.2313
6900.000000	68.348366	-112.6545
7100.000000	69.045074	-115.5082
7300.000000	69.961723	-119.6346
7500.000000	70.878105	-126.7038
7750.000000	71.822113	-137.2369
8000.000000	72.847084	-151.6577
8250.000000	73.458847	-175.5972
8500.000000	71.149445	156.0956
8750.000000	67.518608	149.9214
9000.000000	65.929337	147.1991
9250.000000	64.243767	135.3829
9500.000000	60.691689	122.9646
9750.000000	55.196022	121.8329
10000.000000	47.585327	156.8974
10300.000000	53.089188	-132.1545
10600.000000	58.954296	-141.2119
10900.000000	61.485298	-165.5882
11200.000000	61.697971	167.5809
11500.000000	60.303604	150.1732
11800.000000	60.222015	139.8800
12200.000000	61.176174	101.5472
12500.000000	56.100060	74.4282
12800.000000	52.690216	91.9835
13200.000000	52.829418	86.1726
13600.000000	51.439442	60.2651
14000.000000	47.317932	-13.8766
14500.000000	53.540054	-128.8685
15000.000000	57.970062	171.3639
15500.000000	59.504833	132.7717
16000.000000	61.897133	80.9174
16500.000000	59.318836	3.9489
17000.000000	55.304848	-55.3397
17500.000000	51.838497	-100.4111
18000.000000	54.073792	-137.0720
18500.000000	53.794846	149.9407
19000.000000	50.083767	89.6809
19500.000000	46.174660	32.1738
